OOIBase32 Version 2.0.0.6 Data File
++++++++++++++++++++++++++++++++++++
Date: 
User: Valued Ocean Optics Customer
Spectrometer Serial Number: 
Spectrometer Channel: Master
Integration Time (msec): 120
Spectra Averaged: 5
Boxcar Smoothing: 0
Correct for Electrical Dark: Enabled
Time Normalized: Disabled
Dual-beam Reference: Disabled
Reference Channel: Master
Temperature: Not acquired
Spectrometer Type: S2000
ADC Type: SERIALADC
Number of Pixels in File: 2048
Graph Title: 
>>>>>Begin Spectral Data<<<<<
339.75	0.0
340.11	0.0
340.48	0.3
340.84	-1.3
341.20	0.1
341.56	3.5
341.93	-0.3
342.29	-1.1
342.65	4.7
343.01	-1.7
343.38	0.9
343.74	-1.1
344.10	0.5
344.46	0.7
344.82	1.7
345.19	-2.3
345.55	0.9
345.91	-0.1
346.27	0.1
346.64	1.1
347.00	1.5
347.36	-2.3
347.72	-0.9
348.08	1.9
348.44	0.7
348.81	4.7
349.17	8.9
349.53	4.9
349.89	2.3
350.25	0.5
350.62	1.7
350.98	2.9
351.34	3.3
351.70	3.1
352.06	9.5
352.42	-0.3
352.78	3.5
353.15	0.3
353.51	7.3
353.87	3.3
354.23	5.5
354.59	1.1
354.95	4.7
355.31	0.7
355.67	1.3
356.04	2.7
356.40	7.1
356.76	4.1
357.12	2.5
357.48	2.3
357.84	0.9
358.20	3.7
358.56	5.5
358.92	2.5
359.28	5.9
359.64	3.3
360.00	4.1
360.37	3.5
360.73	7.3
361.09	3.7
361.45	4.5
361.81	3.3
362.17	4.1
362.53	1.5
362.89	5.3
363.25	4.1
363.61	3.9
363.97	5.9
364.33	7.7
364.69	8.7
365.05	8.9
365.41	11.7
365.77	5.3
366.13	4.7
366.49	3.9
366.85	7.3
367.21	4.3
367.57	4.9
367.93	7.9
368.29	7.3
368.65	6.7
369.01	7.1
369.37	7.9
369.73	6.5
370.09	8.7
370.45	7.3
370.81	10.5
371.17	6.5
371.53	10.1
371.89	10.1
372.25	11.1
372.61	7.9
372.96	6.9
373.32	6.1
373.68	7.7
374.04	11.5
374.40	12.3
374.76	10.9
375.12	7.3
375.48	14.3
375.84	13.1
376.20	9.5
376.56	11.1
376.92	10.5
377.27	11.3
377.63	11.7
377.99	12.7
378.35	13.1
378.71	12.9
379.07	12.1
379.43	13.9
379.79	10.9
380.14	14.3
380.50	15.1
380.86	12.9
381.22	16.5
381.58	13.1
381.94	11.9
382.30	13.9
382.65	17.9
383.01	16.1
383.37	18.1
383.73	19.3
384.09	18.1
384.44	18.3
384.80	19.7
385.16	18.7
385.52	18.1
385.88	21.5
386.24	20.3
386.59	25.1
386.95	20.9
387.31	26.1
387.67	22.1
388.02	28.1
388.38	24.1
388.74	25.7
389.10	24.9
389.46	26.5
389.81	25.9
390.17	30.1
390.53	27.9
390.89	26.7
391.24	30.3
391.60	30.9
391.96	32.1
392.32	26.7
392.67	33.5
393.03	31.9
393.39	31.1
393.74	32.9
394.10	33.3
394.46	35.1
394.82	34.9
395.17	38.1
395.53	34.9
395.89	37.3
396.24	39.9
396.60	40.3
396.96	39.9
397.31	42.3
397.67	42.7
398.03	43.9
398.38	42.5
398.74	40.9
399.10	43.3
399.45	44.3
399.81	55.1
400.17	45.3
400.52	50.3
400.88	50.1
401.24	47.7
401.59	50.1
401.95	51.5
402.31	49.5
402.66	52.5
403.02	54.1
403.38	48.5
403.73	56.7
404.09	55.5
404.44	60.1
404.80	55.5
405.16	58.1
405.51	58.5
405.87	62.9
406.22	58.3
406.58	61.1
406.94	61.3
407.29	61.9
407.65	66.5
408.00	67.9
408.36	66.1
408.71	67.3
409.07	70.3
409.43	68.7
409.78	72.1
410.14	70.1
410.49	73.5
410.85	74.7
411.20	77.1
411.56	77.7
411.91	75.3
412.27	73.3
412.62	77.5
412.98	79.9
413.33	76.9
413.69	79.1
414.04	87.5
414.40	88.9
414.75	84.3
415.11	90.5
415.46	86.9
415.82	86.9
416.17	88.9
416.53	84.1
416.88	90.7
417.24	87.1
417.59	93.9
417.95	96.5
418.30	94.1
418.66	100.3
419.01	93.7
419.37	98.7
419.72	101.1
420.07	103.9
420.43	102.3
420.78	103.5
421.14	102.7
421.49	107.3
421.85	110.5
422.20	110.1
422.55	107.5
422.91	109.7
423.26	116.3
423.62	110.5
423.97	114.5
424.33	117.1
424.68	118.9
425.03	116.5
425.39	123.9
425.74	123.9
426.09	127.9
426.45	132.9
426.80	126.5
427.16	135.1
427.51	129.7
427.86	130.7
428.22	135.1
428.57	139.5
428.92	139.7
429.28	137.5
429.63	141.9
429.98	145.5
430.34	144.1
430.69	147.3
431.04	150.5
431.40	152.9
431.75	157.3
432.10	155.5
432.46	161.5
432.81	160.9
433.16	159.7
433.52	166.9
433.87	166.3
434.22	168.7
434.57	172.1
434.93	167.5
435.28	180.1
435.63	174.1
435.99	184.9
436.34	188.3
436.69	184.9
437.04	185.1
437.40	192.7
437.75	193.3
438.10	196.7
438.45	198.7
438.81	198.5
439.16	203.9
439.51	203.3
439.86	206.5
440.22	219.3
440.57	207.9
440.92	214.9
441.27	213.3
441.62	219.1
441.98	221.3
442.33	223.1
442.68	231.3
443.03	223.3
443.38	224.7
443.74	233.1
444.09	230.1
444.44	240.9
444.79	234.3
445.14	245.3
445.50	242.5
445.85	244.1
446.20	252.3
446.55	259.9
446.90	257.3
447.25	248.7
447.60	259.5
447.96	254.5
448.31	271.5
448.66	272.9
449.01	278.3
449.36	275.9
449.71	272.3
450.06	279.3
450.42	282.1
450.77	292.9
451.12	289.9
451.47	287.1
451.82	290.7
452.17	290.1
452.52	291.7
452.87	299.7
453.22	306.7
453.57	296.1
453.93	315.3
454.28	294.5
454.63	319.3
454.98	320.7
455.33	326.9
455.68	329.1
456.03	333.3
456.38	342.1
456.73	345.1
457.08	342.1
457.43	346.7
457.78	347.3
458.13	348.5
458.48	359.3
458.83	358.3
459.18	374.7
459.53	364.9
459.88	368.9
460.23	363.9
460.58	376.1
460.93	384.3
461.28	393.7
461.63	383.9
461.98	397.9
462.33	391.3
462.68	394.5
463.03	423.1
463.38	413.1
463.73	424.7
464.08	422.9
464.43	424.9
464.78	432.5
465.13	455.5
465.48	438.5
465.83	461.5
466.18	463.9
466.53	460.7
466.88	465.1
467.23	476.7
467.58	473.1
467.93	488.5
468.27	486.7
468.62	497.3
468.97	491.9
469.32	502.1
469.67	504.9
470.02	524.9
470.37	533.3
470.72	539.9
471.07	543.7
471.42	557.3
471.76	558.9
472.11	564.5
472.46	574.9
472.81	584.5
473.16	602.7
473.51	601.7
473.86	609.7
474.21	616.1
474.55	622.1
474.90	644.9
475.25	662.5
475.60	656.3
475.95	657.7
476.30	662.7
476.64	692.1
476.99	694.3
477.34	714.5
477.69	717.7
478.04	724.7
478.39	742.1
478.73	741.1
479.08	752.9
479.43	765.5
479.78	786.1
480.13	800.7
480.47	808.7
480.82	829.1
481.17	832.1
481.52	849.7
481.86	861.9
482.21	875.5
482.56	883.1
482.91	890.1
483.25	906.1
483.60	909.7
483.95	934.9
484.30	945.5
484.64	955.7
484.99	970.3
485.34	976.7
485.69	992.1
486.03	1008.3
486.38	1034.5
486.73	1032.7
487.07	1049.3
487.42	1046.5
487.77	1065.9
488.12	1084.3
488.46	1091.5
488.81	1111.3
489.16	1124.1
489.50	1127.9
489.85	1135.5
490.20	1155.5
490.54	1163.9
490.89	1179.9
491.24	1188.5
491.58	1205.5
491.93	1209.9
492.28	1225.5
492.62	1232.9
492.97	1243.1
493.32	1257.5
493.66	1267.5
494.01	1279.7
494.36	1294.5
494.70	1303.1
495.05	1310.3
495.39	1324.9
495.74	1337.9
496.09	1335.7
496.43	1344.1
496.78	1356.5
497.12	1365.9
497.47	1384.1
497.82	1386.3
498.16	1388.3
498.51	1413.7
498.85	1409.3
499.20	1421.9
499.55	1430.3
499.89	1439.3
500.24	1451.7
500.58	1458.7
500.93	1474.7
501.27	1476.3
501.62	1483.1
501.96	1494.7
502.31	1496.3
502.66	1503.9
503.00	1519.1
503.35	1544.5
503.69	1547.1
504.04	1544.9
504.38	1562.7
504.73	1572.1
505.07	1564.9
505.42	1580.5
505.76	1588.5
506.11	1604.5
506.45	1614.3
506.80	1611.1
507.14	1624.5
507.49	1631.5
507.83	1645.3
508.18	1651.1
508.52	1652.5
508.86	1659.9
509.21	1685.7
509.55	1690.5
509.90	1695.1
510.24	1703.9
510.59	1724.9
510.93	1734.3
511.28	1730.9
511.62	1748.7
511.96	1749.5
512.31	1755.5
512.65	1768.5
513.00	1773.9
513.34	1781.1
513.69	1790.7
514.03	1801.1
514.37	1819.9
514.72	1832.1
515.06	1848.3
515.41	1843.7
515.75	1861.5
516.09	1876.5
516.44	1876.5
516.78	1877.7
517.12	1895.9
517.47	1902.5
517.81	1902.9
518.16	1908.5
518.50	1946.5
518.84	1941.5
519.19	1942.7
519.53	1949.5
519.87	1975.5
520.22	1975.7
520.56	1979.3
520.90	1996.1
521.25	2003.3
521.59	2003.9
521.93	2027.3
522.28	2037.7
522.62	2030.5
522.96	2058.3
523.30	2048.3
523.65	2072.5
523.99	2064.1
524.33	2083.9
524.68	2079.7
525.02	2094.7
525.36	2099.1
525.70	2115.9
526.05	2115.3
526.39	2128.1
526.73	2139.9
527.08	2150.3
527.42	2139.5
527.76	2160.7
528.10	2160.7
528.44	2174.1
528.79	2172.9
529.13	2195.7
529.47	2193.5
529.81	2215.1
530.16	2208.1
530.50	2222.5
530.84	2222.3
531.18	2228.1
531.52	2238.1
531.87	2250.5
532.21	2239.7
532.55	2252.5
532.89	2264.9
533.23	2273.1
533.58	2280.7
533.92	2278.9
534.26	2283.5
534.60	2302.7
534.94	2308.5
535.28	2290.7
535.63	2304.9
535.97	2302.9
536.31	2323.7
536.65	2318.9
536.99	2331.9
537.33	2343.5
537.67	2350.5
538.02	2346.9
538.36	2371.9
538.70	2369.7
539.04	2387.5
539.38	2382.5
539.72	2364.1
540.06	2397.3
540.40	2399.9
540.74	2391.3
541.09	2394.3
541.43	2396.9
541.77	2407.3
542.11	2411.5
542.45	2417.1
542.79	2425.5
543.13	2429.7
543.47	2435.7
543.81	2449.5
544.15	2445.9
544.49	2463.3
544.83	2459.5
545.17	2450.7
545.51	2472.7
545.85	2462.7
546.19	2478.5
546.53	2476.9
546.88	2488.5
547.22	2472.5
547.56	2481.3
547.90	2490.7
548.24	2502.7
548.58	2499.1
548.92	2506.3
549.26	2509.9
549.60	2533.9
549.94	2525.9
550.28	2535.7
550.62	2532.1
550.95	2540.9
551.29	2568.7
551.63	2581.5
551.97	2558.9
552.31	2569.1
552.65	2571.1
552.99	2570.1
553.33	2579.5
553.67	2595.3
554.01	2602.9
554.35	2610.1
554.69	2613.5
555.03	2614.5
555.37	2631.3
555.71	2626.1
556.05	2624.5
556.39	2647.1
556.72	2630.1
557.06	2665.9
557.40	2660.9
557.74	2663.7
558.08	2686.1
558.42	2675.1
558.76	2684.9
559.10	2699.7
559.44	2715.3
559.77	2707.1
560.11	2732.7
560.45	2742.1
560.79	2736.7
561.13	2753.5
561.47	2749.7
561.81	2746.5
562.14	2756.7
562.48	2764.7
562.82	2769.9
563.16	2796.1
563.50	2796.7
563.84	2803.5
564.17	2804.1
564.51	2839.3
564.85	2837.3
565.19	2853.3
565.53	2848.7
565.86	2872.1
566.20	2857.7
566.54	2867.9
566.88	2885.9
567.22	2901.3
567.55	2903.5
567.89	2900.3
568.23	2902.3
568.57	2922.7
568.90	2909.9
569.24	2914.9
569.58	2953.7
569.92	2926.1
570.25	2956.1
570.59	2946.5
570.93	2949.7
571.27	2955.5
571.60	2970.3
571.94	2975.7
572.28	2975.9
572.62	2981.3
572.95	2991.5
573.29	2973.3
573.63	3005.3
573.96	3004.7
574.30	3001.5
574.64	3017.7
574.97	3022.5
575.31	3021.3
575.65	3004.5
575.98	3036.9
576.32	3024.3
576.66	3033.3
576.99	3028.9
577.33	3055.5
577.67	3058.5
578.00	3055.3
578.34	3057.3
578.68	3048.1
579.01	3072.5
579.35	3091.3
579.69	3080.1
580.02	3101.7
580.36	3092.7
580.70	3093.7
581.03	3120.7
581.37	3124.5
581.70	3124.1
582.04	3147.5
582.38	3142.9
582.71	3160.5
583.05	3157.9
583.38	3150.5
583.72	3175.7
584.05	3178.5
584.39	3190.5
584.73	3199.7
585.06	3205.7
585.40	3224.7
585.73	3221.1
586.07	3206.9
586.40	3236.3
586.74	3253.5
587.08	3271.7
587.41	3250.3
587.75	3269.7
588.08	3270.3
588.42	3274.5
588.75	3297.3
589.09	3303.9
589.42	3297.1
589.76	3312.1
590.09	3313.5
590.43	3330.3
590.76	3369.5
591.10	3355.9
591.43	3376.1
591.77	3388.3
592.10	3375.9
592.44	3409.9
592.77	3407.3
593.11	3416.7
593.44	3434.3
593.77	3444.5
594.11	3432.7
594.44	3447.3
594.78	3469.7
595.11	3469.9
595.45	3458.5
595.78	3495.9
596.12	3500.1
596.45	3484.7
596.78	3513.9
597.12	3521.3
597.45	3519.7
597.79	3535.7
598.12	3545.1
598.45	3558.1
598.79	3559.9
599.12	3559.1
599.46	3576.9
599.79	3590.9
600.12	3598.7
600.46	3614.7
600.79	3619.3
601.13	3642.7
601.46	3632.9
601.79	3643.5
602.13	3654.9
602.46	3653.5
602.79	3647.7
603.13	3688.7
603.46	3675.3
603.79	3703.1
604.13	3701.9
604.46	3698.7
604.79	3735.7
605.13	3714.5
605.46	3730.1
605.79	3719.5
606.13	3728.5
606.46	3766.7
606.79	3774.1
607.12	3769.9
607.46	3792.9
607.79	3780.3
608.12	3801.9
608.46	3787.9
608.79	3792.1
609.12	3798.7
609.45	3808.1
609.79	3824.3
610.12	3819.1
610.45	3827.1
610.78	3833.3
611.12	3835.3
611.45	3859.3
611.78	3847.1
612.11	3863.5
612.45	3862.5
612.78	3881.3
613.11	3868.1
613.44	3894.1
613.78	3891.5
614.11	3900.5
614.44	3909.3
614.77	3899.9
615.10	3890.7
615.43	3893.5
615.77	3915.5
616.10	3925.3
616.43	3912.7
616.76	3920.9
617.09	3933.7
617.43	3932.5
617.76	3934.9
618.09	3932.1
618.42	3944.9
618.75	3940.5
619.08	3950.1
619.41	3948.9
619.75	3951.9
620.08	3954.5
620.41	3955.7
620.74	3955.7
621.07	3950.3
621.40	3951.7
621.73	3954.5
622.06	3955.3
622.40	3953.1
622.73	3968.1
623.06	3964.3
623.39	3966.7
623.72	3963.3
624.05	3965.5
624.38	3961.7
624.71	3963.3
625.04	3964.9
625.37	3965.5
625.70	3967.3
626.03	3973.3
626.36	3971.3
626.70	3969.5
627.03	3970.1
627.36	3973.1
627.69	3976.3
628.02	3964.9
628.35	3960.7
628.68	3951.1
629.01	3965.1
629.34	3965.7
629.67	3963.1
630.00	3966.1
630.33	3962.3
630.66	3960.1
630.99	3947.9
631.32	3946.9
631.65	3941.3
631.98	3956.7
632.31	3938.9
632.64	3944.7
632.97	3955.5
633.30	3936.5
633.63	3926.5
633.96	3925.9
634.28	3931.9
634.61	3938.7
634.94	3942.5
635.27	3926.5
635.60	3926.5
635.93	3932.7
636.26	3916.1
636.59	3923.7
636.92	3914.7
637.25	3926.7
637.58	3912.7
637.91	3910.5
638.24	3909.7
638.57	3921.5
638.89	3917.7
639.22	3918.1
639.55	3915.5
639.88	3901.5
640.21	3900.1
640.54	3905.1
640.87	3884.1
641.20	3879.9
641.52	3898.5
641.85	3882.3
642.18	3884.1
642.51	3858.9
642.84	3872.1
643.17	3868.7
643.49	3876.1
643.82	3879.5
644.15	3860.1
644.48	3858.5
644.81	3849.5
645.14	3863.9
645.46	3862.5
645.79	3860.3
646.12	3866.5
646.45	3857.3
646.78	3856.3
647.10	3844.7
647.43	3842.9
647.76	3827.3
648.09	3863.1
648.42	3850.7
648.74	3833.7
649.07	3853.9
649.40	3842.5
649.73	3832.7
650.05	3826.7
650.38	3821.7
650.71	3825.7
651.04	3814.7
651.36	3813.5
651.69	3813.9
652.02	3811.9
652.34	3815.7
652.67	3821.3
653.00	3813.9
653.33	3805.7
653.65	3805.5
653.98	3805.5
654.31	3796.5
654.63	3802.1
654.96	3791.9
655.29	3809.9
655.61	3799.3
655.94	3791.7
656.27	3785.1
656.59	3800.5
656.92	3787.9
657.25	3792.1
657.57	3786.1
657.90	3801.7
658.23	3781.7
658.55	3799.7
658.88	3775.3
659.21	3780.9
659.53	3788.1
659.86	3768.3
660.19	3758.5
660.51	3785.1
660.84	3774.3
661.16	3764.3
661.49	3757.3
661.82	3778.7
662.14	3774.5
662.47	3763.3
662.79	3758.3
663.12	3766.9
663.44	3753.5
663.77	3745.7
664.10	3754.3
664.42	3742.3
664.75	3719.9
665.07	3757.9
665.40	3731.9
665.72	3733.7
666.05	3722.1
666.37	3740.1
666.70	3726.1
667.03	3728.7
667.35	3720.1
667.68	3738.5
668.00	3708.9
668.33	3726.7
668.65	3728.5
668.98	3710.5
669.30	3695.7
669.63	3695.1
669.95	3695.1
670.28	3709.1
670.60	3678.1
670.93	3696.3
671.25	3671.7
671.58	3678.7
671.90	3674.5
672.22	3683.7
672.55	3663.1
672.87	3673.7
673.20	3669.9
673.52	3665.1
673.85	3659.7
674.17	3654.5
674.50	3651.1
674.82	3641.3
675.14	3652.1
675.47	3631.1
675.79	3651.1
676.12	3623.5
676.44	3636.3
676.76	3629.9
677.09	3611.9
677.41	3595.5
677.74	3596.9
678.06	3597.1
678.38	3595.1
678.71	3596.1
679.03	3577.7
679.36	3560.5
679.68	3562.5
680.00	3556.1
680.33	3561.9
680.65	3543.5
680.97	3545.9
681.30	3533.7
681.62	3527.1
681.94	3541.7
682.27	3528.1
682.59	3523.9
682.91	3516.1
683.24	3519.7
683.56	3514.5
683.88	3504.7
684.21	3483.3
684.53	3495.9
684.85	3495.1
685.17	3485.1
685.50	3470.5
685.82	3487.7
686.14	3456.1
686.47	3473.1
686.79	3445.1
687.11	3435.5
687.43	3455.9
687.76	3423.1
688.08	3425.7
688.40	3416.7
688.72	3412.7
689.05	3398.3
689.37	3395.7
689.69	3376.7
690.01	3400.7
690.34	3373.1
690.66	3371.3
690.98	3362.7
691.30	3358.7
691.62	3352.5
691.95	3329.3
692.27	3350.7
692.59	3320.1
692.91	3331.9
693.23	3315.5
693.56	3295.5
693.88	3300.7
694.20	3292.9
694.52	3279.7
694.84	3300.1
695.16	3268.5
695.48	3270.7
695.81	3254.1
696.13	3250.9
696.45	3245.7
696.77	3239.3
697.09	3226.3
697.41	3226.9
697.73	3213.3
698.06	3219.9
698.38	3197.7
698.70	3184.1
699.02	3209.7
699.34	3181.5
699.66	3189.9
699.98	3185.3
700.30	3151.9
700.62	3172.3
700.94	3147.1
701.27	3144.9
701.59	3128.7
701.91	3122.7
702.23	3129.7
702.55	3114.7
702.87	3103.9
703.19	3101.3
703.51	3094.1
703.83	3094.7
704.15	3089.7
704.47	3061.9
704.79	3070.7
705.11	3037.5
705.43	3045.9
705.75	3044.9
706.07	3029.5
706.39	3038.5
706.71	3037.7
707.03	3010.1
707.35	3004.7
707.67	2990.9
707.99	2996.9
708.31	2980.7
708.63	3007.9
708.95	2984.5
709.27	2977.3
709.59	2980.9
709.91	2967.3
710.23	2955.3
710.55	2963.9
710.87	2961.5
711.19	2929.3
711.51	2921.5
711.83	2939.1
712.15	2928.7
712.46	2920.1
712.78	2893.3
713.10	2902.5
713.42	2886.7
713.74	2887.5
714.06	2884.5
714.38	2877.7
714.70	2868.9
715.02	2856.7
715.34	2859.7
715.65	2852.1
715.97	2838.3
716.29	2852.9
716.61	2818.1
716.93	2821.7
717.25	2826.3
717.57	2810.9
717.88	2787.3
718.20	2790.5
718.52	2788.3
718.84	2782.7
719.16	2789.7
719.48	2771.9
719.79	2766.5
720.11	2757.5
720.43	2769.5
720.75	2755.9
721.07	2737.5
721.39	2759.3
721.70	2738.5
722.02	2714.9
722.34	2710.7
722.66	2709.5
722.97	2704.5
723.29	2694.5
723.61	2691.3
723.93	2687.1
724.25	2682.5
724.56	2671.7
724.88	2656.9
725.20	2665.3
725.52	2657.3
725.83	2642.5
726.15	2623.5
726.47	2644.5
726.78	2622.3
727.10	2615.1
727.42	2616.1
727.74	2606.9
728.05	2606.1
728.37	2594.3
728.69	2586.3
729.00	2570.9
729.32	2587.1
729.64	2560.3
729.96	2567.3
730.27	2551.5
730.59	2537.7
730.91	2536.3
731.22	2537.1
731.54	2528.1
731.86	2530.1
732.17	2527.1
732.49	2500.3
732.80	2511.5
733.12	2501.5
733.44	2487.9
733.75	2489.3
734.07	2482.3
734.39	2477.3
734.70	2474.3
735.02	2465.1
735.33	2451.7
735.65	2425.1
735.97	2456.7
736.28	2432.5
736.60	2433.5
736.91	2433.3
737.23	2416.9
737.55	2406.1
737.86	2407.3
738.18	2397.1
738.49	2379.9
738.81	2397.9
739.12	2370.7
739.44	2390.9
739.76	2377.3
740.07	2372.9
740.39	2352.5
740.70	2349.3
741.02	2327.7
741.33	2354.1
741.65	2327.7
741.96	2315.9
742.28	2345.7
742.59	2302.3
742.91	2307.9
743.22	2290.5
743.54	2283.1
743.85	2293.7
744.17	2280.1
744.48	2277.1
744.80	2253.9
745.11	2264.1
745.43	2257.3
745.74	2259.3
746.06	2245.1
746.37	2241.7
746.68	2235.7
747.00	2227.7
747.31	2216.7
747.63	2205.9
747.94	2203.5
748.26	2204.9
748.57	2193.3
748.88	2177.5
749.20	2181.1
749.51	2174.7
749.83	2175.7
750.14	2150.5
750.45	2145.9
750.77	2148.7
751.08	2143.3
751.40	2138.1
751.71	2126.7
752.02	2121.7
752.34	2113.9
752.65	2116.3
752.96	2093.5
753.28	2100.5
753.59	2080.9
753.91	2088.7
754.22	2072.9
754.53	2073.3
754.85	2056.5
755.16	2037.3
755.47	2061.7
755.79	2044.7
756.10	2031.5
756.41	2022.1
756.72	2022.3
757.04	2012.1
757.35	2012.9
757.66	1993.7
757.98	1992.1
758.29	1983.7
758.60	1981.1
758.92	1974.3
759.23	1972.5
759.54	1959.5
759.85	1940.5
760.17	1942.5
760.48	1941.7
760.79	1925.3
761.10	1924.5
761.42	1914.3
761.73	1894.7
762.04	1892.9
762.35	1896.3
762.66	1880.5
762.98	1861.3
763.29	1869.1
763.60	1861.1
763.91	1864.9
764.23	1855.7
764.54	1848.7
764.85	1851.7
765.16	1832.5
765.47	1819.3
765.78	1805.7
766.10	1808.1
766.41	1800.5
766.72	1804.1
767.03	1781.1
767.34	1774.7
767.65	1768.3
767.97	1762.5
768.28	1747.5
768.59	1755.9
768.90	1737.9
769.21	1724.9
769.52	1722.1
769.83	1724.9
770.14	1720.5
770.46	1702.7
770.77	1713.9
771.08	1685.5
771.39	1675.9
771.70	1674.5
772.01	1675.1
772.32	1661.5
772.63	1675.3
772.94	1659.3
773.25	1651.1
773.56	1650.7
773.88	1652.3
774.19	1635.3
774.50	1617.1
774.81	1618.3
775.12	1626.5
775.43	1602.7
775.74	1615.3
776.05	1610.3
776.36	1600.7
776.67	1591.3
776.98	1593.9
777.29	1577.9
777.60	1568.1
777.91	1561.1
778.22	1573.7
778.53	1562.3
778.84	1572.7
779.15	1556.5
779.46	1556.5
779.77	1552.3
780.08	1547.7
780.39	1543.5
780.70	1533.9
781.01	1544.3
781.32	1525.3
781.63	1529.1
781.94	1529.3
782.25	1521.5
782.55	1520.5
782.86	1512.5
783.17	1501.9
783.48	1494.7
783.79	1500.9
784.10	1497.9
784.41	1500.1
784.72	1489.7
785.03	1485.3
785.34	1477.5
785.65	1476.7
785.95	1474.9
786.26	1480.3
786.57	1461.1
786.88	1472.7
787.19	1462.9
787.50	1465.5
787.81	1460.3
788.12	1448.9
788.42	1450.3
788.73	1446.9
789.04	1449.9
789.35	1444.5
789.66	1446.1
789.97	1438.1
790.27	1425.9
790.58	1428.1
790.89	1410.5
791.20	1400.3
791.51	1411.1
791.81	1399.7
792.12	1408.7
792.43	1396.9
792.74	1406.9
793.05	1387.9
793.35	1391.5
793.66	1373.7
793.97	1372.5
794.28	1375.7
794.58	1370.9
794.89	1370.7
795.20	1373.9
795.51	1360.7
795.81	1353.5
796.12	1345.5
796.43	1351.1
796.74	1330.7
797.04	1326.7
797.35	1328.7
797.66	1318.5
797.96	1325.3
798.27	1319.9
798.58	1323.3
798.89	1317.7
799.19	1321.1
799.50	1303.3
799.81	1296.5
800.11	1302.3
800.42	1284.7
800.73	1288.9
801.03	1278.5
801.34	1280.7
801.65	1276.7
801.95	1263.5
802.26	1271.1
802.57	1258.5
802.87	1258.7
803.18	1270.9
803.48	1258.7
803.79	1242.1
804.10	1237.9
804.40	1229.3
804.71	1232.3
805.02	1228.1
805.32	1221.1
805.63	1218.7
805.93	1225.1
806.24	1205.1
806.55	1215.1
806.85	1201.1
807.16	1192.5
807.46	1190.3
807.77	1182.7
808.07	1188.3
808.38	1181.1
808.68	1180.7
808.99	1177.7
809.30	1172.1
809.60	1175.7
809.91	1166.7
810.21	1160.1
810.52	1144.1
810.82	1149.3
811.13	1141.1
811.43	1142.9
811.74	1140.5
812.04	1133.9
812.35	1131.1
812.65	1117.9
812.96	1117.1
813.26	1105.5
813.57	1101.3
813.87	1101.3
814.18	1104.1
814.48	1100.3
814.79	1093.7
815.09	1100.3
815.39	1087.7
815.70	1080.7
816.00	1082.5
816.31	1076.5
816.61	1073.1
816.92	1058.1
817.22	1060.5
817.52	1061.9
817.83	1056.1
818.13	1044.9
818.44	1049.3
818.74	1036.7
819.04	1035.1
819.35	1039.5
819.65	1031.1
819.96	1027.5
820.26	1010.9
820.56	1020.3
820.87	1002.1
821.17	1006.9
821.47	1001.9
821.78	1005.3
