OOIBase32 Version 2.0.0.6 Data File
++++++++++++++++++++++++++++++++++++
Date: 
User: Valued Ocean Optics Customer
Spectrometer Serial Number: 
Spectrometer Channel: Master
Integration Time (msec): 120
Spectra Averaged: 5
Boxcar Smoothing: 0
Correct for Electrical Dark: Enabled
Time Normalized: Disabled
Dual-beam Reference: Disabled
Reference Channel: Master
Temperature: Not acquired
Spectrometer Type: S2000
ADC Type: SERIALADC
Number of Pixels in File: 2048
Graph Title: 
>>>>>Begin Spectral Data<<<<<
339.75	0.0
340.11	0.0
340.48	0.7
340.84	1.0
341.20	-0.5
341.56	1.4
341.93	0.9
342.29	-0.2
342.65	5.3
343.01	1.8
343.38	-0.3
343.74	-0.8
344.10	-0.1
344.46	1.4
344.82	0.9
345.19	1.0
345.55	-1.5
345.91	-2.0
346.27	-0.5
346.64	-2.8
347.00	1.9
347.36	2.2
347.72	-0.1
348.08	1.0
348.44	2.7
348.81	5.4
349.17	6.5
349.53	-5.2
349.89	4.3
350.25	2.2
350.62	2.9
350.98	5.8
351.34	3.5
351.70	2.4
352.06	5.9
352.42	1.8
352.78	2.7
353.15	0.4
353.51	3.3
353.87	2.8
354.23	2.7
354.59	3.4
354.95	4.7
355.31	3.6
355.67	3.9
356.04	1.4
356.40	6.1
356.76	5.6
357.12	-4.9
357.48	3.4
357.84	5.3
358.20	5.8
358.56	4.5
358.92	1.0
359.28	2.3
359.64	2.6
360.00	3.9
360.37	4.8
360.73	5.3
361.09	4.4
361.45	3.5
361.81	3.0
362.17	3.3
362.53	3.0
362.89	3.9
363.25	4.8
363.61	3.3
363.97	4.2
364.33	8.9
364.69	11.0
365.05	3.5
365.41	10.4
365.77	2.3
366.13	5.0
366.49	6.7
366.85	-0.6
367.21	5.5
367.57	6.8
367.93	4.5
368.29	6.0
368.65	6.5
369.01	6.6
369.37	4.9
369.73	7.8
370.09	6.9
370.45	6.6
370.81	7.7
371.17	9.8
371.53	8.5
371.89	7.0
372.25	11.9
372.61	8.4
372.96	8.9
373.32	8.2
373.68	9.3
374.04	7.8
374.40	10.7
374.76	9.6
375.12	7.9
375.48	13.0
375.84	12.5
376.20	9.8
376.56	10.7
376.92	12.8
377.27	11.9
377.63	10.2
377.99	11.5
378.35	9.2
378.71	9.9
379.07	10.4
379.43	9.7
379.79	10.2
380.14	10.1
380.50	12.4
380.86	16.3
381.22	15.4
381.58	13.7
381.94	16.0
382.30	12.5
382.65	14.0
383.01	15.5
383.37	18.0
383.73	18.7
384.09	15.8
384.44	16.7
384.80	15.4
385.16	17.5
385.52	20.0
385.88	18.5
386.24	21.2
386.59	21.9
386.95	21.8
387.31	19.9
387.67	18.8
388.02	25.1
388.38	25.0
388.74	23.7
389.10	27.4
389.46	23.5
389.81	23.0
390.17	28.1
390.53	25.2
390.89	29.1
391.24	27.4
391.60	26.7
391.96	28.6
392.32	28.9
392.67	32.0
393.03	30.5
393.39	27.0
393.74	29.9
394.10	30.0
394.46	31.1
394.82	33.6
395.17	30.1
395.53	33.2
395.89	35.7
396.24	32.6
396.60	35.7
396.96	37.2
397.31	36.5
397.67	39.2
398.03	37.7
398.38	38.8
398.74	38.9
399.10	39.6
399.45	40.3
399.81	47.6
400.17	40.7
400.52	42.6
400.88	44.5
401.24	44.8
401.59	45.1
401.95	45.4
402.31	44.9
402.66	46.6
403.02	47.3
403.38	45.0
403.73	49.1
404.09	49.8
404.44	50.9
404.80	50.6
405.16	49.1
405.51	54.4
405.87	52.3
406.22	52.2
406.58	53.3
406.94	53.6
407.29	60.3
407.65	58.2
408.00	62.1
408.36	58.4
408.71	58.5
409.07	61.6
409.43	60.5
409.78	60.6
410.14	61.5
410.49	63.2
410.85	66.1
411.20	67.6
411.56	66.3
411.91	68.8
412.27	66.1
412.62	67.0
412.98	70.3
413.33	65.8
413.69	70.5
414.04	76.6
414.40	76.3
414.75	74.0
415.11	79.1
415.46	79.0
415.82	78.3
416.17	79.4
416.53	76.7
416.88	80.8
417.24	79.3
417.59	84.0
417.95	86.3
418.30	85.0
418.66	84.1
419.01	84.4
419.37	87.3
419.72	87.2
420.07	87.7
420.43	90.8
420.78	88.9
421.14	91.4
421.49	93.7
421.85	97.6
422.20	95.1
422.55	95.2
422.91	97.1
423.26	103.2
423.62	98.9
423.97	100.4
424.33	101.7
424.68	108.8
425.03	105.7
425.39	108.2
425.74	109.5
426.09	114.0
426.45	111.1
426.80	112.4
427.16	120.5
427.51	115.0
427.86	112.5
428.22	113.8
428.57	122.1
428.92	122.6
429.28	125.3
429.63	123.6
429.98	126.5
430.34	126.8
430.69	125.5
431.04	130.4
431.40	133.9
431.75	134.4
432.10	133.3
432.46	141.2
432.81	136.9
433.16	135.8
433.52	147.7
433.87	142.8
434.22	146.9
434.57	149.6
434.93	149.9
435.28	157.2
435.63	158.3
435.99	157.6
436.34	164.1
436.69	161.0
437.04	160.1
437.40	169.0
437.75	164.7
438.10	173.2
438.45	173.1
438.81	172.2
439.16	174.3
439.51	184.0
439.86	181.1
440.22	190.6
440.57	179.7
440.92	185.0
441.27	183.3
441.62	193.0
441.98	198.7
442.33	195.0
442.68	201.9
443.03	199.8
443.38	205.5
443.74	204.2
444.09	208.9
444.44	209.2
444.79	207.9
445.14	213.8
445.50	208.3
445.85	213.0
446.20	218.9
446.55	230.0
446.90	229.1
447.25	221.2
447.60	231.5
447.96	226.2
448.31	242.1
448.66	239.8
449.01	245.7
449.36	248.0
449.71	246.7
450.06	245.8
450.42	252.5
450.77	258.2
451.12	260.5
451.47	254.8
451.82	258.9
452.17	255.8
452.52	263.7
452.87	266.6
453.22	280.9
453.57	266.2
453.93	284.5
454.28	272.6
454.63	286.5
454.98	285.0
455.33	294.9
455.68	296.6
456.03	301.5
456.38	307.4
456.73	308.9
457.08	309.8
457.43	313.1
457.78	312.4
458.13	311.5
458.48	322.6
458.83	323.9
459.18	332.8
459.53	331.1
459.88	337.6
460.23	326.3
460.58	337.0
460.93	344.5
461.28	352.6
461.63	349.1
461.98	361.0
462.33	354.3
462.68	358.0
463.03	378.5
463.38	370.8
463.73	382.3
464.08	376.8
464.43	389.9
464.78	396.2
465.13	413.1
465.48	399.4
465.83	414.5
466.18	419.8
466.53	421.3
466.88	422.6
467.23	433.1
467.58	431.0
467.93	449.9
468.27	438.4
468.62	453.9
468.97	450.0
469.32	458.5
469.67	460.6
470.02	471.1
470.37	489.0
470.72	485.3
471.07	497.6
471.42	505.3
471.76	506.8
472.11	510.9
472.46	518.2
472.81	524.9
473.16	544.6
473.51	546.9
473.86	560.6
474.21	559.7
474.55	573.8
474.90	590.1
475.25	591.2
475.60	598.5
475.95	600.4
476.30	605.5
476.64	629.0
476.99	633.1
477.34	651.0
477.69	654.3
478.04	657.4
478.39	673.3
478.73	675.0
479.08	687.3
479.43	701.4
479.78	713.7
480.13	721.4
480.47	725.1
480.82	744.4
481.17	753.5
481.52	768.0
481.86	782.7
482.21	789.6
482.56	801.9
482.91	816.0
483.25	820.7
483.60	831.4
483.95	848.9
484.30	854.2
484.64	873.1
484.99	886.6
485.34	894.1
485.69	902.6
486.03	917.9
486.38	922.4
486.73	930.3
487.07	956.4
487.42	951.5
487.77	972.2
488.12	978.7
488.46	999.2
488.81	995.1
489.16	1018.8
489.50	1028.9
489.85	1030.8
490.20	1050.1
490.54	1063.0
490.89	1059.1
491.24	1073.4
491.58	1095.1
491.93	1097.6
492.28	1105.5
492.62	1114.8
492.97	1125.5
493.32	1129.0
493.66	1142.1
494.01	1145.0
494.36	1161.3
494.70	1171.8
495.05	1176.9
495.39	1184.4
495.74	1207.9
496.09	1196.8
496.43	1206.7
496.78	1221.4
497.12	1229.1
497.47	1246.6
497.82	1246.7
498.16	1248.4
498.51	1259.1
498.85	1279.0
499.20	1276.9
499.55	1290.8
499.89	1294.1
500.24	1306.0
500.58	1306.5
500.93	1325.2
501.27	1326.3
501.62	1335.4
501.96	1347.7
502.31	1343.0
502.66	1352.1
503.00	1366.4
503.35	1372.7
503.69	1392.8
504.04	1388.7
504.38	1395.6
504.73	1394.7
505.07	1406.8
505.42	1410.5
505.76	1428.6
506.11	1439.7
506.45	1448.0
506.80	1448.3
507.14	1442.4
507.49	1454.5
507.83	1464.8
508.18	1470.3
508.52	1472.6
508.86	1479.1
509.21	1500.2
509.55	1500.1
509.90	1513.0
510.24	1510.9
510.59	1516.8
510.93	1534.1
511.28	1536.8
511.62	1549.1
511.96	1556.6
512.31	1557.3
512.65	1569.2
513.00	1571.9
513.34	1587.2
513.69	1591.5
514.03	1599.4
514.37	1605.7
514.72	1607.0
515.06	1630.1
515.41	1632.8
515.75	1642.9
516.09	1645.4
516.44	1654.5
516.78	1663.4
517.12	1670.1
517.47	1673.0
517.81	1678.5
518.16	1684.2
518.50	1699.9
518.84	1703.0
519.19	1713.1
519.53	1707.6
519.87	1724.9
520.22	1728.6
520.56	1735.1
520.90	1747.4
521.25	1760.7
521.59	1754.8
521.93	1761.9
522.28	1765.6
522.62	1771.7
522.96	1788.4
523.30	1777.7
523.65	1801.2
523.99	1785.3
524.33	1795.0
524.68	1804.1
525.02	1805.4
525.36	1809.3
525.70	1826.4
526.05	1827.5
526.39	1836.0
526.73	1831.1
527.08	1848.0
527.42	1839.9
527.76	1849.4
528.10	1850.3
528.44	1847.2
528.79	1845.9
529.13	1872.0
529.47	1870.3
529.81	1879.0
530.16	1869.3
530.50	1880.8
530.84	1884.5
531.18	1883.6
531.52	1889.1
531.87	1891.4
532.21	1889.9
532.55	1896.6
532.89	1898.5
533.23	1912.0
533.58	1914.1
533.92	1923.0
534.26	1910.1
534.60	1927.2
534.94	1928.1
535.28	1912.2
535.63	1914.7
535.97	1928.2
536.31	1932.9
536.65	1923.0
536.99	1936.1
537.33	1939.8
537.67	1952.1
538.02	1948.2
538.36	1955.5
538.70	1955.8
539.04	1968.1
539.38	1950.4
539.72	1954.9
540.06	1973.0
540.40	1973.1
540.74	1960.8
541.09	1979.5
541.43	1973.8
541.77	1982.3
542.11	1981.4
542.45	1981.9
542.79	1995.8
543.13	2001.1
543.47	2008.4
543.81	2003.5
544.15	1997.8
544.49	2007.1
544.83	2031.6
545.17	2020.7
545.51	2043.6
545.85	2031.1
546.19	2039.6
546.53	2042.1
546.88	2050.2
547.22	2034.9
547.56	2054.8
547.90	2063.9
548.24	2076.4
548.58	2061.9
548.92	2075.6
549.26	2072.1
549.60	2075.0
549.94	2087.5
550.28	2106.4
550.62	2093.9
550.95	2097.4
551.29	2134.7
551.63	2128.6
551.97	2114.9
552.31	2135.2
552.65	2123.5
552.99	2137.2
553.33	2152.3
553.67	2154.6
554.01	2162.9
554.35	2170.2
554.69	2179.7
555.03	2183.4
555.37	2182.7
555.71	2186.4
556.05	2180.5
556.39	2215.6
556.72	2200.5
557.06	2223.4
557.40	2225.1
557.74	2233.4
558.08	2244.7
558.42	2236.8
558.76	2238.9
559.10	2252.8
559.44	2263.9
559.77	2255.6
560.11	2273.1
560.45	2268.8
560.79	2277.3
561.13	2295.0
561.47	2292.1
561.81	2289.0
562.14	2290.7
562.48	2304.8
562.82	2310.9
563.16	2314.4
563.50	2321.9
563.84	2338.6
564.17	2330.3
564.51	2343.4
564.85	2340.7
565.19	2366.2
565.53	2358.5
565.86	2363.6
566.20	2355.9
566.54	2360.4
566.88	2377.1
567.22	2384.0
567.55	2386.5
567.89	2377.4
568.23	2385.7
568.57	2391.4
568.90	2376.5
569.24	2401.2
569.58	2403.7
569.92	2405.0
570.25	2398.1
570.59	2387.2
570.93	2409.7
571.27	2397.0
571.60	2405.5
571.94	2403.4
572.28	2414.3
572.62	2422.6
572.95	2421.1
573.29	2409.8
573.63	2426.7
573.96	2425.0
574.30	2433.7
574.64	2434.8
574.97	2428.3
575.31	2457.4
575.65	2426.9
575.98	2457.4
576.32	2456.9
576.66	2456.4
576.99	2453.5
577.33	2454.4
577.67	2465.5
578.00	2475.0
578.34	2472.9
578.68	2481.6
579.01	2485.7
579.35	2495.6
579.69	2505.3
580.02	2517.8
580.36	2525.5
580.70	2526.8
581.03	2548.1
581.37	2556.6
581.70	2560.9
582.04	2575.2
582.38	2588.3
582.71	2606.0
583.05	2611.5
583.38	2595.6
583.72	2619.1
584.05	2638.6
584.39	2649.1
584.73	2656.2
585.06	2671.5
585.40	2704.2
585.73	2712.5
586.07	2711.6
586.40	2731.7
586.74	2756.0
587.08	2771.5
587.41	2763.4
587.75	2783.3
588.08	2800.4
588.42	2824.7
588.75	2831.0
589.09	2840.1
589.42	2844.2
589.76	2883.5
590.09	2873.0
590.43	2901.5
590.76	2924.2
591.10	2925.9
591.43	2944.4
591.77	2974.5
592.10	2967.4
592.44	2982.5
592.77	3003.0
593.11	3015.7
593.44	3048.2
593.77	3055.9
594.11	3047.4
594.44	3091.3
594.78	3076.0
595.11	3107.3
595.45	3102.6
595.78	3144.3
596.12	3157.0
596.45	3148.9
596.78	3177.8
597.12	3188.1
597.45	3197.8
597.79	3202.5
598.12	3224.2
598.45	3249.5
598.79	3249.8
599.12	3265.7
599.46	3259.4
599.79	3284.9
600.12	3293.4
600.46	3326.5
600.79	3333.0
601.13	3348.1
601.46	3347.4
601.79	3372.7
602.13	3372.0
602.46	3381.9
602.79	3395.4
603.13	3421.7
603.46	3408.2
603.79	3435.3
604.13	3434.4
604.46	3435.3
604.79	3466.4
605.13	3470.3
605.46	3487.0
605.79	3481.7
606.13	3487.4
606.46	3504.7
606.79	3523.4
607.12	3510.9
607.46	3536.6
607.79	3519.3
608.12	3547.4
608.46	3536.1
608.79	3547.8
609.12	3563.1
609.45	3577.4
609.79	3601.7
610.12	3592.2
610.45	3609.1
610.78	3602.8
611.12	3619.7
611.45	3638.0
611.78	3621.9
612.11	3645.0
612.45	3647.9
612.78	3669.4
613.11	3640.7
613.44	3663.8
613.78	3653.1
614.11	3676.8
614.44	3702.5
614.77	3677.0
615.10	3672.9
615.43	3689.0
615.77	3701.5
616.10	3702.4
616.43	3686.7
616.76	3711.2
617.09	3721.7
617.43	3719.0
617.76	3725.3
618.09	3725.4
618.42	3752.3
618.75	3725.6
619.08	3747.7
619.41	3730.0
619.75	3738.5
620.08	3748.6
620.41	3760.1
620.74	3751.6
621.07	3727.3
621.40	3744.4
621.73	3762.1
622.06	3744.0
622.40	3754.5
622.73	3771.2
623.06	3755.9
623.39	3772.4
623.72	3750.3
624.05	3775.4
624.38	3757.5
624.71	3753.6
625.04	3763.5
625.37	3755.6
625.70	3756.3
626.03	3763.0
626.36	3763.5
626.70	3763.4
627.03	3772.5
627.36	3769.0
627.69	3766.3
628.02	3764.0
628.35	3773.7
628.68	3753.0
629.01	3777.7
629.34	3780.8
629.67	3775.5
630.00	3765.0
630.33	3767.1
630.66	3777.6
630.99	3753.5
631.32	3760.0
631.65	3756.9
631.98	3775.2
632.31	3743.3
632.64	3762.8
632.97	3749.1
633.30	3746.2
633.63	3741.7
633.96	3740.0
634.28	3751.3
634.61	3753.6
634.94	3754.7
635.27	3733.6
635.60	3741.5
635.93	3752.6
636.26	3740.1
636.59	3739.8
636.92	3718.7
637.25	3744.2
637.58	3723.3
637.91	3740.0
638.24	3725.3
638.57	3732.6
638.89	3749.7
639.22	3725.6
639.55	3720.7
639.88	3725.6
640.21	3714.1
640.54	3731.0
640.87	3706.5
641.20	3704.8
641.52	3719.3
641.85	3700.8
642.18	3699.5
642.51	3709.0
642.84	3698.5
643.17	3695.8
643.49	3704.7
643.82	3704.8
644.15	3686.5
644.48	3691.6
644.81	3694.3
645.14	3712.4
645.46	3707.5
645.79	3680.8
646.12	3690.7
646.45	3666.2
646.78	3683.3
647.10	3671.8
647.43	3686.5
647.76	3672.2
648.09	3681.9
648.42	3682.0
648.74	3672.1
649.07	3674.4
649.40	3663.3
649.73	3667.4
650.05	3671.1
650.38	3663.2
650.71	3660.9
651.04	3649.6
651.36	3657.7
651.69	3655.8
652.02	3644.9
652.34	3626.6
652.67	3649.9
653.00	3663.8
653.33	3642.5
653.65	3653.8
653.98	3648.5
654.31	3638.0
654.63	3645.1
654.96	3651.2
655.29	3643.1
655.61	3639.4
655.94	3631.3
656.27	3621.2
656.59	3640.5
656.92	3618.4
657.25	3628.5
657.57	3629.6
657.90	3635.1
658.23	3614.6
658.55	3649.7
658.88	3624.8
659.21	3630.1
659.53	3624.2
659.86	3618.5
660.19	3585.0
660.51	3622.9
660.84	3609.6
661.16	3600.1
661.49	3601.8
661.82	3613.5
662.14	3613.0
662.47	3605.3
662.79	3607.8
663.12	3604.3
663.44	3592.4
663.77	3587.3
664.10	3587.8
664.42	3585.7
664.75	3564.2
665.07	3592.9
665.40	3570.4
665.72	3570.3
666.05	3569.6
666.37	3586.3
666.70	3556.0
667.03	3584.3
667.35	3568.2
667.68	3575.3
668.00	3547.4
668.33	3565.1
668.65	3573.8
668.98	3553.7
669.30	3547.0
669.63	3548.1
669.95	3532.8
670.28	3540.1
670.60	3527.8
670.93	3540.3
671.25	3526.4
671.58	3529.1
671.90	3528.8
672.22	3526.7
672.55	3524.0
672.87	3523.9
673.20	3508.8
673.52	3522.5
673.85	3507.2
674.17	3497.7
674.50	3512.0
674.82	3498.5
675.14	3485.8
675.47	3489.1
675.79	3496.0
676.12	3477.1
676.44	3495.4
676.76	3490.1
677.09	3474.0
677.41	3439.5
677.74	3473.6
678.06	3470.7
678.38	3470.6
678.71	3457.9
679.03	3432.8
679.36	3436.9
679.68	3437.4
680.00	3416.1
680.33	3425.0
680.65	3409.7
680.97	3421.8
681.30	3415.3
681.62	3392.4
681.94	3417.1
682.27	3386.0
682.59	3389.7
682.91	3378.2
683.24	3385.1
683.56	3387.6
683.88	3365.5
684.21	3358.2
684.53	3372.1
684.85	3365.2
685.17	3356.9
685.50	3338.0
685.82	3345.1
686.14	3340.8
686.47	3341.5
686.79	3291.4
687.11	3306.3
687.43	3320.2
687.76	3295.9
688.08	3304.8
688.40	3277.5
688.72	3291.4
689.05	3267.5
689.37	3263.0
689.69	3252.9
690.01	3262.2
690.34	3256.1
690.66	3253.0
690.98	3239.9
691.30	3247.0
691.62	3231.3
691.95	3222.0
692.27	3223.9
692.59	3209.6
692.91	3219.1
693.23	3197.0
693.56	3171.5
693.88	3178.2
694.20	3182.5
694.52	3168.2
694.84	3168.9
695.16	3152.2
695.48	3161.3
695.81	3150.0
696.13	3132.7
696.45	3134.4
696.77	3129.7
697.09	3115.8
697.41	3108.3
697.73	3103.6
698.06	3097.7
698.38	3086.2
698.70	3097.5
699.02	3094.2
699.34	3072.3
699.66	3080.0
699.98	3071.5
700.30	3049.6
700.62	3050.9
700.94	3027.2
701.27	3040.9
701.59	3025.0
701.91	3004.9
702.23	3018.6
702.55	3003.3
702.87	2995.0
703.19	2982.7
703.51	2982.2
703.83	2990.3
704.15	2988.4
704.47	2970.1
704.79	2961.6
705.11	2943.3
705.43	2940.0
705.75	2946.5
706.07	2926.4
706.39	2927.9
706.71	2926.4
707.03	2913.3
707.35	2898.6
707.67	2886.5
707.99	2895.0
708.31	2878.7
708.63	2891.0
708.95	2886.3
709.27	2887.4
709.59	2875.5
709.91	2871.8
710.23	2857.7
710.55	2855.6
710.87	2847.7
711.19	2838.6
711.51	2833.3
711.83	2839.0
712.15	2834.5
712.46	2816.6
712.78	2779.9
713.10	2810.2
713.42	2801.7
713.74	2786.4
714.06	2778.3
714.38	2778.2
714.70	2784.5
715.02	2759.4
715.34	2770.9
715.65	2756.2
715.97	2743.9
716.29	2756.6
716.61	2731.3
716.93	2730.2
717.25	2728.9
717.57	2712.6
717.88	2706.3
718.20	2691.2
718.52	2704.3
718.84	2693.2
719.16	2705.1
719.48	2689.4
719.79	2684.1
720.11	2662.4
720.43	2689.1
720.75	2678.0
721.07	2658.1
721.39	2661.8
721.70	2650.9
722.02	2631.6
722.34	2638.1
722.66	2633.8
722.97	2622.7
723.29	2599.2
723.61	2599.7
723.93	2592.8
724.25	2597.5
724.56	2601.0
724.88	2585.3
725.20	2578.4
725.52	2571.1
725.83	2555.0
726.15	2551.1
726.47	2565.4
726.78	2554.1
727.10	2531.2
727.42	2536.9
727.74	2524.8
728.05	2523.9
728.37	2522.4
728.69	2503.7
729.00	2499.4
729.32	2506.5
729.64	2498.8
729.96	2504.5
730.27	2473.6
730.59	2467.1
730.91	2467.4
731.22	2468.5
731.54	2462.8
731.86	2468.7
732.17	2462.0
732.49	2447.3
732.80	2443.0
733.12	2430.5
733.44	2431.8
733.75	2437.7
734.07	2421.4
734.39	2412.3
734.70	2404.8
735.02	2392.9
735.33	2390.0
735.65	2367.1
735.97	2380.0
736.28	2367.1
736.60	2371.2
736.91	2364.3
737.23	2352.4
737.55	2348.7
737.86	2342.2
738.18	2331.3
738.49	2322.4
738.81	2336.5
739.12	2319.0
739.44	2311.1
739.76	2297.0
740.07	2308.3
740.39	2298.2
740.70	2289.7
741.02	2273.8
741.33	2279.3
741.65	2269.2
741.96	2263.7
742.28	2285.4
742.59	2242.1
742.91	2243.2
743.22	2239.1
743.54	2232.0
743.85	2242.7
744.17	2217.2
744.48	2214.3
744.80	2218.4
745.11	2214.7
745.43	2192.6
745.74	2195.5
746.06	2183.4
746.37	2176.5
746.68	2169.2
747.00	2159.9
747.31	2167.2
747.63	2153.7
747.94	2144.6
748.26	2141.3
748.57	2124.0
748.88	2123.1
749.20	2129.2
749.51	2098.3
749.83	2117.6
750.14	2099.1
750.45	2086.2
750.77	2101.1
751.08	2077.8
751.40	2074.7
751.71	2062.8
752.02	2054.3
752.34	2047.4
752.65	2050.3
752.96	2028.8
753.28	2037.7
753.59	2019.8
753.91	2015.5
754.22	2017.2
754.53	2019.1
754.85	1994.2
755.16	1981.1
755.47	1994.4
755.79	1974.9
756.10	1978.2
756.41	1968.9
756.72	1959.8
757.04	1953.3
757.35	1952.2
757.66	1935.7
757.98	1934.2
758.29	1936.5
758.60	1908.8
758.92	1914.3
759.23	1908.8
759.54	1904.1
759.85	1895.2
760.17	1894.5
760.48	1884.2
760.79	1869.1
761.10	1862.2
761.42	1844.3
761.73	1848.0
762.04	1837.7
762.35	1834.4
762.66	1826.1
762.98	1810.6
763.29	1814.1
763.60	1799.0
763.91	1799.9
764.23	1789.0
764.54	1789.1
764.85	1798.2
765.16	1772.3
765.47	1768.4
765.78	1759.5
766.10	1752.6
766.41	1750.7
766.72	1744.4
767.03	1736.9
767.34	1717.6
767.65	1726.9
767.97	1719.2
768.28	1702.9
768.59	1708.0
768.90	1688.3
769.21	1677.0
769.52	1679.5
769.83	1682.2
770.14	1667.5
770.46	1658.6
770.77	1659.1
771.08	1647.6
771.39	1640.1
771.70	1633.4
772.01	1625.7
772.32	1621.8
772.63	1623.9
772.94	1617.2
773.25	1613.9
773.56	1604.8
773.88	1603.5
774.19	1601.4
774.50	1577.5
774.81	1571.2
775.12	1581.1
775.43	1568.0
775.74	1569.1
776.05	1572.8
776.36	1548.3
776.67	1548.8
776.98	1557.5
777.29	1539.8
777.60	1531.1
777.91	1517.8
778.22	1542.7
778.53	1517.2
778.84	1519.3
779.15	1513.0
779.46	1518.1
779.77	1512.6
780.08	1508.7
780.39	1504.0
780.70	1501.7
781.01	1498.2
781.32	1487.7
781.63	1486.0
781.94	1480.9
782.25	1478.2
782.55	1478.9
782.86	1481.2
783.17	1461.3
783.48	1463.6
783.79	1469.7
784.10	1450.6
784.41	1458.7
784.72	1455.8
785.03	1453.5
785.34	1443.4
785.65	1439.9
785.95	1434.6
786.26	1440.7
786.57	1428.8
786.88	1428.9
787.19	1434.6
787.50	1419.5
787.81	1425.6
788.12	1419.1
788.42	1409.4
788.73	1397.5
789.04	1398.8
789.35	1394.7
789.66	1398.6
789.97	1390.5
790.27	1383.6
790.58	1386.7
790.89	1379.8
791.20	1362.1
791.51	1379.0
791.81	1376.9
792.12	1368.4
792.43	1354.7
792.74	1358.2
793.05	1361.7
793.35	1342.0
793.66	1337.3
793.97	1346.0
794.28	1344.1
794.58	1339.0
794.89	1326.7
795.20	1336.0
795.51	1324.3
795.81	1318.0
796.12	1315.5
796.43	1308.8
796.74	1302.3
797.04	1293.4
797.35	1294.5
797.66	1286.4
797.96	1283.9
798.27	1288.6
798.58	1293.1
798.89	1283.4
799.19	1274.7
799.50	1272.4
799.81	1267.5
800.11	1265.0
800.42	1251.1
800.73	1258.6
801.03	1243.9
801.34	1247.0
801.65	1240.9
801.95	1237.2
802.26	1237.1
802.57	1220.2
802.87	1232.3
803.18	1227.0
803.48	1222.1
803.79	1210.6
804.10	1208.7
804.40	1197.0
804.71	1204.7
805.02	1201.8
805.32	1179.7
805.63	1184.6
805.93	1191.1
806.24	1180.6
806.55	1183.5
806.85	1166.8
807.16	1166.5
807.46	1152.2
807.77	1156.5
808.07	1154.8
808.38	1141.7
808.68	1143.8
808.99	1144.5
809.30	1133.2
809.60	1140.7
809.91	1132.6
810.21	1124.1
810.52	1115.6
810.82	1112.1
811.13	1114.4
811.43	1105.7
811.74	1108.0
812.04	1103.3
812.35	1094.6
812.65	1092.3
812.96	1088.6
813.26	1076.7
813.57	1072.8
813.87	1072.9
814.18	1079.2
814.48	1078.7
814.79	1068.4
815.09	1052.9
815.39	1062.0
815.70	1044.9
816.00	1052.0
816.31	1038.1
816.61	1050.6
816.92	1034.3
817.22	1039.8
817.52	1041.7
817.83	1029.4
818.13	1023.9
818.44	1012.2
818.74	1010.5
819.04	1003.4
819.35	999.1
819.65	998.4
819.96	1000.7
820.26	991.2
820.56	991.7
820.87	988.8
821.17	975.5
821.47	978.8
821.78	970.9
822.08	974.8
822.39	973.3
822.69	967.6
