OOIBase32 Version 2.0.0.6 Data File
++++++++++++++++++++++++++++++++++++
Date: 
User: Valued Ocean Optics Customer
Spectrometer Serial Number: 
Spectrometer Channel: Master
Integration Time (msec): 30
Spectra Averaged: 5
Boxcar Smoothing: 0
Correct for Electrical Dark: Enabled
Time Normalized: Disabled
Dual-beam Reference: Disabled
Reference Channel: Master
Temperature: Not acquired
Spectrometer Type: S2000
ADC Type: SERIALADC
Number of Pixels in File: 2048
Graph Title: 
>>>>>Begin Spectral Data<<<<<
339.75	0.0
340.11	0.0
340.48	2.1
340.84	0.7
341.20	0.7
341.56	1.3
341.93	1.1
342.29	0.3
342.65	0.3
343.01	-0.9
343.38	-0.7
343.74	-0.5
344.10	2.3
344.46	-1.5
344.82	0.3
345.19	-1.1
345.55	-0.3
345.91	-0.1
346.27	1.1
346.64	-3.9
347.00	-1.7
347.36	-0.1
347.72	1.1
348.08	0.5
348.44	2.3
348.81	1.3
349.17	4.9
349.53	2.7
349.89	4.7
350.25	3.9
350.62	2.9
350.98	2.9
351.34	4.1
351.70	-0.3
352.06	5.1
352.42	2.7
352.78	3.7
353.15	1.5
353.51	3.9
353.87	2.1
354.23	3.5
354.59	2.5
354.95	2.7
355.31	3.5
355.67	2.9
356.04	1.1
356.40	4.3
356.76	4.3
357.12	7.5
357.48	7.7
357.84	3.7
358.20	5.9
358.56	4.3
358.92	3.5
359.28	4.3
359.64	8.5
360.00	4.7
360.37	5.7
360.73	4.9
361.09	5.1
361.45	6.9
361.81	6.5
362.17	5.7
362.53	5.5
362.89	7.5
363.25	6.3
363.61	9.3
363.97	6.1
364.33	7.3
364.69	8.9
365.05	6.7
365.41	8.3
365.77	7.7
366.13	8.3
366.49	11.9
366.85	8.9
367.21	9.3
367.57	8.1
367.93	7.3
368.29	9.7
368.65	8.9
369.01	8.9
369.37	10.7
369.73	8.9
370.09	10.9
370.45	7.5
370.81	10.1
371.17	11.1
371.53	13.9
371.89	12.5
372.25	13.3
372.61	13.1
372.96	10.7
373.32	11.9
373.68	14.7
374.04	13.5
374.40	16.1
374.76	15.7
375.12	14.5
375.48	17.1
375.84	16.1
376.20	17.3
376.56	16.3
376.92	17.5
377.27	16.1
377.63	17.3
377.99	19.5
378.35	19.5
378.71	20.3
379.07	19.5
379.43	19.3
379.79	20.1
380.14	24.9
380.50	20.7
380.86	25.3
381.22	23.9
381.58	22.9
381.94	21.7
382.30	23.3
382.65	26.7
383.01	25.9
383.37	28.5
383.73	26.1
384.09	27.3
384.44	30.3
384.80	30.7
385.16	32.9
385.52	36.5
385.88	35.3
386.24	36.3
386.59	38.3
386.95	36.1
387.31	38.3
387.67	32.7
388.02	39.9
388.38	40.3
388.74	44.1
389.10	41.9
389.46	42.7
389.81	43.7
390.17	46.3
390.53	45.5
390.89	46.1
391.24	49.3
391.60	48.7
391.96	54.1
392.32	51.5
392.67	50.5
393.03	53.7
393.39	52.7
393.74	56.3
394.10	58.1
394.46	58.3
394.82	59.5
395.17	57.1
395.53	61.9
395.89	61.3
396.24	63.3
396.60	64.1
396.96	64.9
397.31	68.3
397.67	68.7
398.03	69.9
398.38	70.7
398.74	68.5
399.10	70.7
399.45	73.3
399.81	75.7
400.17	76.5
400.52	82.1
400.88	80.1
401.24	82.5
401.59	80.5
401.95	88.7
402.31	89.3
402.66	86.1
403.02	87.3
403.38	82.9
403.73	91.3
404.09	94.5
404.44	97.1
404.80	92.3
405.16	94.7
405.51	101.1
405.87	103.3
406.22	102.1
406.58	102.1
406.94	105.9
407.29	106.1
407.65	109.7
408.00	115.5
408.36	111.5
408.71	115.9
409.07	115.1
409.43	118.3
409.78	120.9
410.14	122.3
410.49	123.1
410.85	124.9
411.20	133.7
411.56	128.3
411.91	128.5
412.27	124.9
412.62	135.3
412.98	131.1
413.33	130.7
413.69	131.5
414.04	142.9
414.40	145.3
414.75	139.7
415.11	151.7
415.46	151.9
415.82	151.9
416.17	153.9
416.53	147.9
416.88	154.3
417.24	153.3
417.59	162.9
417.95	168.3
418.30	164.1
418.66	167.9
419.01	167.1
419.37	167.1
419.72	170.7
420.07	174.3
420.43	178.3
420.78	174.7
421.14	177.3
421.49	181.9
421.85	189.7
422.20	187.7
422.55	187.7
422.91	187.1
423.26	185.9
423.62	191.3
423.97	196.3
424.33	203.7
424.68	206.9
425.03	203.1
425.39	209.3
425.74	212.9
426.09	218.9
426.45	224.3
426.80	218.7
427.16	231.7
427.51	220.7
427.86	223.1
428.22	225.3
428.57	231.3
428.92	238.3
429.28	239.5
429.63	238.1
429.98	243.5
430.34	248.7
430.69	245.5
431.04	248.3
431.40	249.5
431.75	253.1
432.10	256.9
432.46	267.3
432.81	262.3
433.16	264.5
433.52	280.7
433.87	267.5
434.22	276.3
434.57	285.3
434.93	279.3
435.28	291.5
435.63	288.1
435.99	295.9
436.34	298.9
436.69	302.7
437.04	301.1
437.40	311.3
437.75	307.3
438.10	317.1
438.45	316.5
438.81	321.5
439.16	319.9
439.51	327.1
439.86	332.9
440.22	342.3
440.57	322.9
440.92	335.7
441.27	329.3
441.62	345.5
441.98	347.7
442.33	341.1
442.68	358.1
443.03	355.1
443.38	351.3
443.74	357.5
444.09	363.1
444.44	373.3
444.79	361.3
445.14	374.3
445.50	362.5
445.85	368.3
446.20	383.5
446.55	380.5
446.90	390.7
447.25	371.5
447.60	390.1
447.96	383.9
448.31	404.7
448.66	394.5
449.01	414.7
449.36	412.1
449.71	409.3
450.06	414.3
450.42	417.7
450.77	427.9
451.12	427.5
451.47	416.9
451.82	419.3
452.17	420.7
452.52	432.7
452.87	436.7
453.22	451.5
453.57	434.5
453.93	454.3
454.28	429.1
454.63	454.9
454.98	455.9
455.33	466.7
455.68	473.3
456.03	472.3
456.38	480.3
456.73	483.9
457.08	483.1
457.43	494.7
457.78	486.5
458.13	487.7
458.48	508.9
458.83	508.3
459.18	527.3
459.53	514.5
459.88	520.5
460.23	509.5
460.58	528.3
460.93	538.3
461.28	546.3
461.63	535.5
461.98	557.9
462.33	552.1
462.68	553.7
463.03	588.7
463.38	577.7
463.73	588.1
464.08	587.7
464.43	599.3
464.78	613.3
465.13	631.7
465.48	607.9
465.83	640.5
466.18	643.9
466.53	645.1
466.88	642.7
467.23	671.1
467.58	665.9
467.93	680.7
468.27	668.9
468.62	703.5
468.97	690.9
469.32	704.9
469.67	704.7
470.02	719.1
470.37	741.3
470.72	740.9
471.07	753.7
471.42	775.9
471.76	776.3
472.11	787.7
472.46	791.1
472.81	815.3
473.16	835.5
473.51	833.5
473.86	844.3
474.21	851.9
474.55	869.5
474.90	883.5
475.25	901.1
475.60	913.1
475.95	909.5
476.30	922.9
476.64	947.1
476.99	969.5
477.34	981.9
477.69	988.3
478.04	996.1
478.39	1018.5
478.73	1028.7
479.08	1038.5
479.43	1056.7
479.78	1086.1
480.13	1092.1
480.47	1097.1
480.82	1124.7
481.17	1136.5
481.52	1150.7
481.86	1180.1
482.21	1187.3
482.56	1194.5
482.91	1209.7
483.25	1230.5
483.60	1244.5
483.95	1269.5
484.30	1271.7
484.64	1297.3
484.99	1312.3
485.34	1329.5
485.69	1329.5
486.03	1360.1
486.38	1373.9
486.73	1374.7
487.07	1402.5
487.42	1388.7
487.77	1419.5
488.12	1438.5
488.46	1452.3
488.81	1460.7
489.16	1477.5
489.50	1485.7
489.85	1494.3
490.20	1510.3
490.54	1518.9
490.89	1541.5
491.24	1558.5
491.58	1573.3
491.93	1588.1
492.28	1580.7
492.62	1599.9
492.97	1607.3
493.32	1631.1
493.66	1632.5
494.01	1647.1
494.36	1659.7
494.70	1673.1
495.05	1670.7
495.39	1683.3
495.74	1709.5
496.09	1710.1
496.43	1718.7
496.78	1727.5
497.12	1729.3
497.47	1739.9
497.82	1749.9
498.16	1748.3
498.51	1775.5
498.85	1768.3
499.20	1775.9
499.55	1788.7
499.89	1802.3
500.24	1806.7
500.58	1810.5
500.93	1825.7
501.27	1833.9
501.62	1831.5
501.96	1848.5
502.31	1849.7
502.66	1853.7
503.00	1870.1
503.35	1872.7
503.69	1886.7
504.04	1895.3
504.38	1910.9
504.73	1903.7
505.07	1918.1
505.42	1916.3
505.76	1930.5
506.11	1938.5
506.45	1950.5
506.80	1952.9
507.14	1956.3
507.49	1952.9
507.83	1980.5
508.18	1981.1
508.52	1985.7
508.86	1992.1
509.21	2003.5
509.55	2000.9
509.90	2018.5
510.24	2039.7
510.59	2033.7
510.93	2061.3
511.28	2041.3
511.62	2056.9
511.96	2075.1
512.31	2080.7
512.65	2082.1
513.00	2095.1
513.34	2108.5
513.69	2119.5
514.03	2127.7
514.37	2127.1
514.72	2138.1
515.06	2153.3
515.41	2149.7
515.75	2165.9
516.09	2162.5
516.44	2197.3
516.78	2186.3
517.12	2189.3
517.47	2216.1
517.81	2211.3
518.16	2214.9
518.50	2238.7
518.84	2245.3
519.19	2251.7
519.53	2260.3
519.87	2277.9
520.22	2283.1
520.56	2295.7
520.90	2309.9
521.25	2313.1
521.59	2310.1
521.93	2317.7
522.28	2327.7
522.62	2344.5
522.96	2364.7
523.30	2348.5
523.65	2370.7
523.99	2358.5
524.33	2373.1
524.68	2379.3
525.02	2399.5
525.36	2404.5
525.70	2413.3
526.05	2418.3
526.39	2417.9
526.73	2432.3
527.08	2432.1
527.42	2440.7
527.76	2454.3
528.10	2448.3
528.44	2470.5
528.79	2461.7
529.13	2487.3
529.47	2473.1
529.81	2493.5
530.16	2477.7
530.50	2492.5
530.84	2500.3
531.18	2506.9
531.52	2509.9
531.87	2517.7
532.21	2519.3
532.55	2528.1
532.89	2524.7
533.23	2545.1
533.58	2547.3
533.92	2548.9
534.26	2548.9
534.60	2565.3
534.94	2561.9
535.28	2561.1
535.63	2569.1
535.97	2586.7
536.31	2587.1
536.65	2581.9
536.99	2599.3
537.33	2593.3
537.67	2588.1
538.02	2605.7
538.36	2610.7
538.70	2613.1
539.04	2640.3
539.38	2635.7
539.72	2604.5
540.06	2631.7
540.40	2640.1
540.74	2629.1
541.09	2637.7
541.43	2644.9
541.77	2647.1
542.11	2638.1
542.45	2644.3
542.79	2658.1
543.13	2668.9
543.47	2671.5
543.81	2698.3
544.15	2675.7
544.49	2686.7
544.83	2702.5
545.17	2692.7
545.51	2714.7
545.85	2713.1
546.19	2704.3
546.53	2709.9
546.88	2735.1
547.22	2713.5
547.56	2726.5
547.90	2737.5
548.24	2754.1
548.58	2743.7
548.92	2748.1
549.26	2744.9
549.60	2769.1
549.94	2765.3
550.28	2769.9
550.62	2762.7
550.95	2764.5
551.29	2798.5
551.63	2809.7
551.97	2782.7
552.31	2794.5
552.65	2797.1
552.99	2796.5
553.33	2829.3
553.67	2834.3
554.01	2843.5
554.35	2835.7
554.69	2820.5
555.03	2851.3
555.37	2851.9
555.71	2849.9
556.05	2837.5
556.39	2875.9
556.72	2856.5
557.06	2882.1
557.40	2874.1
557.74	2883.7
558.08	2897.5
558.42	2881.9
558.76	2904.3
559.10	2906.7
559.44	2905.3
559.77	2902.9
560.11	2925.1
560.45	2923.3
560.79	2928.1
561.13	2935.3
561.47	2940.9
561.81	2929.7
562.14	2951.9
562.48	2941.9
562.82	2950.7
563.16	2963.3
563.50	2979.3
563.84	2974.7
564.17	2966.1
564.51	2988.5
564.85	2962.7
565.19	3005.5
565.53	3000.1
565.86	2994.9
566.20	2982.9
566.54	3006.1
566.88	3008.1
567.22	3029.1
567.55	3016.1
567.89	3015.7
568.23	3011.9
568.57	3025.3
568.90	3012.5
569.24	3031.7
569.58	3051.1
569.92	3038.5
570.25	3040.7
570.59	3032.3
570.93	3046.5
571.27	3036.9
571.60	3052.7
571.94	3054.1
572.28	3052.3
572.62	3062.1
572.95	3059.3
573.29	3043.9
573.63	3064.5
573.96	3070.7
574.30	3061.3
574.64	3074.7
574.97	3078.5
575.31	3084.7
575.65	3052.7
575.98	3088.3
576.32	3061.5
576.66	3084.5
576.99	3068.7
577.33	3077.1
577.67	3069.9
578.00	3083.5
578.34	3073.1
578.68	3082.3
579.01	3088.7
579.35	3096.3
579.69	3084.7
580.02	3102.9
580.36	3081.1
580.70	3094.7
581.03	3089.5
581.37	3104.5
581.70	3083.1
582.04	3090.5
582.38	3087.1
582.71	3100.3
583.05	3101.7
583.38	3077.7
583.72	3103.7
584.05	3094.9
584.39	3105.7
584.73	3100.5
585.06	3099.9
585.40	3103.7
585.73	3095.7
586.07	3076.5
586.40	3109.1
586.74	3089.3
587.08	3109.1
587.41	3073.3
587.75	3094.7
588.08	3095.7
588.42	3103.3
588.75	3085.3
589.09	3103.7
589.42	3069.3
589.76	3113.5
590.09	3079.7
590.43	3087.7
590.76	3102.1
591.10	3092.5
591.43	3098.7
591.77	3116.9
592.10	3093.3
592.44	3106.5
592.77	3092.7
593.11	3114.1
593.44	3113.9
593.77	3110.9
594.11	3092.3
594.44	3123.7
594.78	3083.7
595.11	3100.5
595.45	3096.3
595.78	3104.7
596.12	3113.3
596.45	3091.9
596.78	3116.9
597.12	3102.9
597.45	3108.3
597.79	3106.9
598.12	3124.7
598.45	3105.5
598.79	3102.5
599.12	3115.3
599.46	3115.1
599.79	3110.3
600.12	3111.5
600.46	3124.5
600.79	3123.3
601.13	3134.5
601.46	3121.9
601.79	3128.9
602.13	3122.9
602.46	3114.5
602.79	3109.5
603.13	3138.7
603.46	3112.9
603.79	3137.1
604.13	3122.7
604.46	3121.1
604.79	3143.3
605.13	3127.9
605.46	3124.3
605.79	3131.5
606.13	3114.9
606.46	3148.5
606.79	3141.7
607.12	3140.5
607.46	3155.5
607.79	3138.9
608.12	3149.7
608.46	3125.7
608.79	3137.7
609.12	3135.5
609.45	3132.9
609.79	3151.1
610.12	3152.3
610.45	3144.1
610.78	3134.7
611.12	3137.1
611.45	3152.1
611.78	3145.5
612.11	3148.5
612.45	3151.7
612.78	3158.3
613.11	3137.1
613.44	3146.9
613.78	3141.3
614.11	3152.9
614.44	3153.5
614.77	3142.5
615.10	3127.5
615.43	3127.5
615.77	3135.5
616.10	3139.3
616.43	3140.5
616.76	3138.7
617.09	3142.9
617.43	3134.9
617.76	3139.1
618.09	3124.1
618.42	3143.5
618.75	3123.5
619.08	3137.1
619.41	3129.3
619.75	3118.1
620.08	3125.5
620.41	3133.5
620.74	3125.1
621.07	3105.7
621.40	3109.1
621.73	3121.5
622.06	3098.5
622.40	3098.9
622.73	3104.3
623.06	3092.7
623.39	3103.7
623.72	3080.5
624.05	3094.9
624.38	3079.7
624.71	3087.3
625.04	3082.9
625.37	3079.5
625.70	3090.9
626.03	3086.1
626.36	3068.7
626.70	3066.9
627.03	3070.3
627.36	3057.1
627.69	3069.3
628.02	3047.5
628.35	3055.3
628.68	3036.5
629.01	3043.7
629.34	3053.1
629.67	3041.1
630.00	3044.5
630.33	3045.9
630.66	3041.7
630.99	3025.3
631.32	3027.1
631.65	3024.9
631.98	3026.5
632.31	3001.5
632.64	3020.9
632.97	3010.7
633.30	3005.1
633.63	2982.3
633.96	2983.5
634.28	2991.7
634.61	2997.1
634.94	2996.7
635.27	2965.9
635.60	2972.9
635.93	2969.5
636.26	2962.5
636.59	2965.7
636.92	2952.1
637.25	2959.5
637.58	2949.3
637.91	2947.9
638.24	2936.7
638.57	2952.1
638.89	2951.3
639.22	2940.3
639.55	2929.5
639.88	2930.3
640.21	2922.1
640.54	2923.5
640.87	2910.9
641.20	2911.3
641.52	2904.5
641.85	2893.3
642.18	2896.1
642.51	2902.1
642.84	2896.3
643.17	2885.9
643.49	2887.1
643.82	2892.9
644.15	2869.3
644.48	2883.1
644.81	2870.9
645.14	2865.7
645.46	2869.5
645.79	2862.5
646.12	2856.5
646.45	2838.5
646.78	2844.7
647.10	2831.3
647.43	2846.9
647.76	2839.3
648.09	2846.7
648.42	2825.7
648.74	2821.7
649.07	2826.7
649.40	2811.7
649.73	2819.5
650.05	2813.1
650.38	2809.7
650.71	2813.7
651.04	2805.1
651.36	2803.3
651.69	2799.1
652.02	2792.1
652.34	2781.9
652.67	2783.1
653.00	2793.3
653.33	2781.9
653.65	2780.5
653.98	2793.5
654.31	2755.5
654.63	2769.5
654.96	2760.1
655.29	2768.1
655.61	2763.7
655.94	2755.7
656.27	2732.1
656.59	2755.3
656.92	2733.3
657.25	2746.1
657.57	2754.1
657.90	2762.7
658.23	2727.5
658.55	2747.1
658.88	2736.5
659.21	2737.9
659.53	2730.7
659.86	2725.3
660.19	2719.7
660.51	2727.9
660.84	2709.7
661.16	2702.3
661.49	2705.5
661.82	2718.1
662.14	2703.1
662.47	2694.1
662.79	2697.1
663.12	2705.9
663.44	2692.7
663.77	2670.1
664.10	2678.5
664.42	2687.7
664.75	2659.5
665.07	2675.1
665.40	2654.3
665.72	2671.9
666.05	2656.3
666.37	2667.7
666.70	2642.1
667.03	2657.9
667.35	2649.1
667.68	2644.5
668.00	2632.9
668.33	2650.1
668.65	2644.7
668.98	2617.5
669.30	2625.7
669.63	2632.7
669.95	2626.7
670.28	2614.7
670.60	2599.3
670.93	2601.9
671.25	2599.7
671.58	2602.3
671.90	2605.5
672.22	2590.9
672.55	2590.5
672.87	2576.3
673.20	2587.1
673.52	2582.1
673.85	2574.7
674.17	2563.9
674.50	2562.5
674.82	2539.1
675.14	2561.3
675.47	2549.5
675.79	2540.1
676.12	2520.5
676.44	2525.9
676.76	2535.3
677.09	2522.7
677.41	2512.3
677.74	2513.3
678.06	2505.1
678.38	2494.3
678.71	2507.7
679.03	2492.5
679.36	2481.3
679.68	2485.9
680.00	2481.5
680.33	2478.1
680.65	2455.9
680.97	2474.5
681.30	2460.3
681.62	2448.7
681.94	2454.3
682.27	2443.5
682.59	2439.7
682.91	2425.5
683.24	2435.1
683.56	2417.9
683.88	2415.1
684.21	2412.9
684.53	2410.5
684.85	2406.7
685.17	2402.1
685.50	2384.5
685.82	2394.3
686.14	2380.7
686.47	2380.7
686.79	2352.1
687.11	2364.1
687.43	2356.5
687.76	2347.3
688.08	2355.3
688.40	2328.3
688.72	2342.1
689.05	2324.9
689.37	2327.1
689.69	2316.9
690.01	2304.5
690.34	2304.3
690.66	2293.9
690.98	2290.1
691.30	2287.3
691.62	2282.5
691.95	2276.9
692.27	2282.7
692.59	2255.5
692.91	2268.7
693.23	2249.9
693.56	2241.5
693.88	2250.5
694.20	2241.7
694.52	2217.5
694.84	2243.5
695.16	2217.1
695.48	2229.1
695.81	2207.5
696.13	2202.5
696.45	2198.3
696.77	2201.9
697.09	2201.7
697.41	2189.7
697.73	2173.9
698.06	2180.9
698.38	2166.9
698.70	2158.5
699.02	2154.3
699.34	2141.1
699.66	2141.3
699.98	2140.5
700.30	2130.3
700.62	2130.3
700.94	2115.3
701.27	2127.1
701.59	2108.7
701.91	2103.5
702.23	2112.5
702.55	2094.3
702.87	2084.9
703.19	2069.7
703.51	2074.3
703.83	2080.1
704.15	2078.1
704.47	2054.7
704.79	2055.1
705.11	2038.5
705.43	2034.1
705.75	2036.3
706.07	2029.5
706.39	2026.7
706.71	2028.5
707.03	2015.3
707.35	1997.5
707.67	2004.5
707.99	2002.1
708.31	1991.5
708.63	2005.1
708.95	1985.9
709.27	1991.1
709.59	1977.5
709.91	1982.1
710.23	1982.7
710.55	1972.7
710.87	1973.5
711.19	1959.9
711.51	1941.3
711.83	1960.1
712.15	1952.9
712.46	1935.7
712.78	1918.5
713.10	1925.5
713.42	1922.5
713.74	1911.1
714.06	1912.5
714.38	1910.1
714.70	1914.7
715.02	1910.7
715.34	1902.9
715.65	1896.5
715.97	1900.3
716.29	1894.7
716.61	1871.5
716.93	1876.1
717.25	1874.9
717.57	1869.5
717.88	1856.3
718.20	1854.5
718.52	1854.1
718.84	1854.7
719.16	1842.9
719.48	1840.3
719.79	1835.1
720.11	1824.5
720.43	1833.9
720.75	1824.7
721.07	1811.3
721.39	1813.7
721.70	1814.9
722.02	1799.3
722.34	1799.1
722.66	1795.1
722.97	1786.9
723.29	1792.7
723.61	1790.7
723.93	1777.1
724.25	1781.5
724.56	1775.5
724.88	1768.9
725.20	1768.5
725.52	1768.9
725.83	1755.7
726.15	1744.9
726.47	1763.3
726.78	1753.9
727.10	1745.3
727.42	1730.9
727.74	1723.9
728.05	1737.7
728.37	1727.1
728.69	1727.1
729.00	1706.3
729.32	1717.1
729.64	1704.5
729.96	1713.9
730.27	1691.3
730.59	1693.5
730.91	1691.7
731.22	1691.1
731.54	1687.1
731.86	1697.3
732.17	1680.7
732.49	1670.7
732.80	1674.5
733.12	1669.9
733.44	1658.3
733.75	1652.5
734.07	1662.7
734.39	1639.9
734.70	1654.5
735.02	1638.9
735.33	1644.9
735.65	1623.1
735.97	1629.9
736.28	1625.5
736.60	1623.9
736.91	1615.3
737.23	1612.1
737.55	1612.3
737.86	1621.9
738.18	1599.3
738.49	1600.3
738.81	1600.5
739.12	1599.3
739.44	1599.3
739.76	1570.9
740.07	1580.7
740.39	1574.1
740.70	1567.5
741.02	1560.7
741.33	1564.9
741.65	1552.1
741.96	1551.1
742.28	1556.7
742.59	1518.3
742.91	1538.9
743.22	1534.3
743.54	1529.1
743.85	1537.1
744.17	1513.9
744.48	1519.9
744.80	1517.7
745.11	1520.1
745.43	1493.1
745.74	1501.7
746.06	1499.3
746.37	1488.7
746.68	1486.1
747.00	1491.9
747.31	1486.9
747.63	1474.5
747.94	1465.1
748.26	1471.3
748.57	1467.3
748.88	1463.7
749.20	1457.7
749.51	1447.3
749.83	1450.9
750.14	1444.5
750.45	1429.1
750.77	1440.1
751.08	1426.5
751.40	1430.7
751.71	1420.9
752.02	1416.7
752.34	1417.3
752.65	1416.3
752.96	1396.3
753.28	1407.3
753.59	1393.1
753.91	1395.9
754.22	1383.1
754.53	1385.3
754.85	1375.5
755.16	1367.3
755.47	1377.5
755.79	1356.9
756.10	1364.7
756.41	1352.5
756.72	1357.9
757.04	1350.1
757.35	1335.1
757.66	1328.3
757.98	1326.5
758.29	1331.3
758.60	1315.9
758.92	1321.3
759.23	1306.1
759.54	1305.7
759.85	1299.9
760.17	1302.7
760.48	1284.9
760.79	1292.3
761.10	1287.5
761.42	1281.5
761.73	1273.7
762.04	1259.7
762.35	1265.9
762.66	1245.1
762.98	1240.7
763.29	1231.7
763.60	1242.9
763.91	1232.1
764.23	1236.3
764.54	1231.5
764.85	1230.9
765.16	1217.9
765.47	1210.5
765.78	1202.9
766.10	1199.7
766.41	1195.1
766.72	1198.9
767.03	1184.9
767.34	1172.7
767.65	1169.5
767.97	1170.7
768.28	1164.7
768.59	1169.9
768.90	1157.5
769.21	1145.1
769.52	1144.1
769.83	1135.5
770.14	1145.1
770.46	1137.5
770.77	1131.9
771.08	1118.5
771.39	1105.9
771.70	1110.3
772.01	1110.1
772.32	1097.1
772.63	1097.5
772.94	1101.3
773.25	1085.1
773.56	1095.5
773.88	1084.9
774.19	1084.1
774.50	1071.7
774.81	1067.5
775.12	1059.3
775.43	1055.7
775.74	1061.9
776.05	1059.5
776.36	1044.1
776.67	1050.1
776.98	1048.9
777.29	1038.5
777.60	1037.9
777.91	1038.5
778.22	1043.1
778.53	1023.3
778.84	1023.9
779.15	1028.1
779.46	1022.3
779.77	1008.3
780.08	1014.1
780.39	1017.5
780.70	1010.5
781.01	1005.5
781.32	1007.3
781.63	994.3
781.94	998.9
782.25	997.9
782.55	993.1
782.86	995.7
783.17	985.1
783.48	981.5
783.79	988.5
784.10	982.7
784.41	976.7
784.72	976.9
785.03	975.1
785.34	975.3
785.65	963.5
785.95	967.9
786.26	968.9
786.57	961.1
786.88	955.3
787.19	960.1
787.50	957.7
787.81	960.1
788.12	950.7
788.42	947.1
788.73	938.3
789.04	935.3
789.35	934.3
789.66	936.5
789.97	928.9
790.27	927.5
790.58	931.1
790.89	926.5
791.20	917.1
791.51	921.1
791.81	919.9
792.12	918.3
792.43	908.9
792.74	907.7
793.05	901.5
793.35	899.5
793.66	904.5
793.97	902.1
794.28	892.1
794.58	893.7
794.89	887.7
795.20	892.7
795.51	894.7
795.81	877.3
796.12	884.3
796.43	880.1
796.74	869.7
797.04	863.5
797.35	863.5
797.66	852.5
797.96	850.3
798.27	857.3
798.58	861.7
798.89	855.5
799.19	850.5
799.50	848.9
799.81	835.3
800.11	845.1
800.42	841.1
800.73	836.7
801.03	840.1
801.34	830.3
801.65	824.7
801.95	828.9
802.26	831.1
802.57	818.1
802.87	819.7
803.18	819.3
803.48	821.1
803.79	804.1
804.10	812.3
804.40	800.1
804.71	797.5
805.02	807.3
805.32	788.7
805.63	795.9
805.93	792.3
806.24	793.3
806.55	794.9
806.85	779.5
807.16	775.7
807.46	780.3
807.77	774.1
808.07	772.5
808.38	768.1
808.68	767.3
808.99	762.9
809.30	753.9
809.60	763.9
809.91	760.1
810.21	758.9
810.52	744.5
810.82	747.7
811.13	747.7
811.43	739.9
811.74	743.5
812.04	739.3
812.35	730.3
812.65	732.7
812.96	729.7
813.26	720.1
813.57	719.9
813.87	721.7
814.18	723.1
814.48	720.1
814.79	712.9
815.09	709.9
815.39	713.3
815.70	698.9
816.00	701.5
816.31	701.9
816.61	705.7
816.92	695.1
817.22	692.3
817.52	700.9
817.83	688.9
818.13	683.9
818.44	683.3
818.74	681.9
819.04	679.3
819.35	677.7
819.65	670.7
819.96	668.9
820.26	658.9
820.56	675.1
820.87	665.1
821.17	665.1
821.47	665.3
821.78	660.7
822.08	656.3
822.39	652.1
822.69	649.7
822.99	651.3
823.30	647.7
